
# Total neutron yield = 0.0  n/decay
	 o16 0.0
	 o17 0.0
	 o18 0.0
# Integral of spectrum = 1.763768087601205e-10  n/decay
100 0.0
200 0.0
300 0.0
400 0.0
500 0.0
600 0.0
700 0.0
800 0.0
900 0.0
1000 0.0
1100 0.0
1200 0.0
1300 0.0
1400 0.0
1500 0.0
1600 0.0
1700 0.0
1800 0.0
1900 0.0
2000 0.0
2100 0.0
2200 0.0
2300 0.0
2400 0.0
2500 0.0
2600 0.0
2700 0.0
2800 0.0
2900 0.0
3000 0.0
3100 0.0
3200 0.0
3300 0.0
3400 0.0
3500 0.0
3600 0.0
3700 0.0
3800 0.0
3900 0.0
4000 0.0
4100 0.0
4200 0.0
4300 0.0
4400 0.0
4500 0.0
4600 0.0
4700 0.0
4800 0.0
4900 0.0
5000 0.0
5100 0.0
5200 0.0
5300 0.0
5400 0.0
5500 0.0
5600 0.0
5700 2.5739415626517144e-18
5800 2.191872426714142e-17
5900 5.636541341243612e-17
6000 2.9018136641268616e-16
6100 3.02373577351303e-16
6200 3.9950485099103565e-16
6300 6.433106320421411e-16
6400 1.412456442529091e-15
6500 1.7931611007816506e-15
6600 2.0633689883935274e-15
6700 2.9640462362084146e-15
6800 3.9102844541815395e-15
6900 8.200304918557536e-15
7000 1.074456570930717e-14
7100 1.3134675658268219e-14
7200 1.7262560764602076e-14
7300 2.492330961105757e-14
7400 3.1399311999341176e-14
7500 4.0230414909219746e-14
7600 4.6392844543981035e-14
7700 5.103138438008605e-14
7800 5.612441245717862e-14
7900 6.151138149490698e-14
8000 6.592709855021438e-14
8100 7.21532768731166e-14
8200 7.936505977403492e-14
8300 7.836430308747121e-14
8400 7.70856533907333e-14
8500 7.623573772172638e-14
8600 7.504573234725916e-14
8700 7.29185879596868e-14
8800 6.916989442024888e-14
8900 6.654756178892222e-14
9000 6.516236782113107e-14
9100 6.281149433354812e-14
9200 6.028880491966108e-14
9300 5.6814194888185046e-14
9400 5.2988569699085924e-14
9500 4.852605766949508e-14
9600 4.494319520158797e-14
9700 4.041216407702294e-14
9800 3.613551347831025e-14
9900 3.202306365110063e-14
10000 2.899038696946919e-14
10100 2.6530291224465224e-14
10200 2.4001832797911128e-14
10300 2.0393728802293897e-14
10400 1.680841855751161e-14
10500 1.42045517048095e-14
10600 1.1693083770429452e-14
10700 7.93176508287547e-15
10800 4.434406144512617e-15
10900 1.0465787197447337e-15
11000 0.0
11100 0.0
11200 0.0
11300 0.0
11400 0.0
11500 0.0
11600 0.0
11700 0.0
11800 0.0
11900 0.0
12000 0.0
12100 0.0
12200 0.0
12300 0.0
12400 0.0
12500 0.0
12600 0.0
12700 0.0
12800 0.0
12900 0.0
13000 0.0
13100 0.0
13200 0.0
13300 0.0
13400 0.0
13500 0.0
13600 0.0
13700 0.0
13800 0.0
13900 0.0
14000 0.0
14100 0.0
14200 0.0
14300 0.0
14400 0.0
14500 0.0
14600 0.0
14700 0.0
14800 0.0
14900 0.0
15000 0.0
