
# Total neutron yield = 0.0  n/decay
	 c12 0.0
	 c13 0.0
# Integral of spectrum = 7.037772662500891e-07  n/decay
100 0.0
200 0.0
300 0.0
400 0.0
500 0.0
600 0.0
700 0.0
800 0.0
900 0.0
1000 0.0
1100 0.0
1200 0.0
1300 0.0
1400 0.0
1500 0.0
1600 0.0
1700 0.0
1800 0.0
1900 0.0
2000 0.0
2100 0.0
2200 0.0
2300 0.0
2400 1.5628267094557754e-14
2500 2.7064192075493913e-13
2600 8.915415410297998e-13
2700 1.5858299306115247e-12
2800 3.0815717605048706e-12
2900 8.438919982222304e-12
3000 3.125257049401362e-11
3100 6.900659412407274e-11
3200 8.93129417036959e-11
3300 9.432255631365228e-11
3400 1.0729398694759245e-10
3500 1.1736510919092284e-10
3600 1.5802331392342257e-10
3700 1.8521699818852198e-10
3800 1.6228986704702444e-10
3900 1.4905644465836141e-10
4000 1.428968243924079e-10
4100 1.4540950671403702e-10
4200 1.6568707886529428e-10
4300 1.7570709961275854e-10
4400 1.7465376423399175e-10
4500 1.9714117240384124e-10
4600 2.097563942194299e-10
4700 2.2592889544955312e-10
4800 2.335627986931623e-10
4900 2.2678746479152146e-10
5000 2.3427574663257097e-10
5100 2.444180122650791e-10
5200 2.3633707936483396e-10
5300 2.2358151193538899e-10
5400 1.950544668158898e-10
5500 1.6036787262377168e-10
5600 1.4118775631867428e-10
5700 1.362507581722149e-10
5800 1.3037127201132893e-10
5900 1.2668165611525428e-10
6000 1.256550639315582e-10
6100 1.2601741385343705e-10
6200 1.2468707422631529e-10
6300 1.2722066915124289e-10
6400 1.2903956130585282e-10
6500 1.2124690097556502e-10
6600 1.253014024434989e-10
6700 1.1809717201209473e-10
6800 1.2009854713057343e-10
6900 1.228757308930669e-10
7000 1.1289805595348397e-10
7100 1.0643810889386051e-10
7200 9.48142101523552e-11
7300 8.079354349214291e-11
7400 7.569630519944622e-11
7500 6.455751979135359e-11
7600 6.00606553755395e-11
7700 5.804136912919845e-11
7800 5.5175063567475786e-11
7900 4.474797640504569e-11
8000 3.138806799108836e-11
8100 2.503235519822744e-11
8200 1.9612813498470817e-11
8300 1.5968652293155974e-11
8400 1.2335577396771707e-11
8500 9.389752803605598e-12
8600 7.907738820625374e-12
8700 5.657062977983034e-12
8800 4.525760778112808e-12
8900 3.696655240198431e-12
9000 2.94413943098844e-12
9100 1.8375757614696895e-12
9200 5.324710312576165e-13
9300 1.2016439668263004e-17
9400 1.0852163415864546e-17
9500 9.749995459515945e-18
9600 8.097673279301552e-18
9700 5.135364434278837e-18
9800 1.919689582319892e-18
9900 0.0
10000 0.0
10100 0.0
10200 0.0
10300 0.0
10400 0.0
10500 0.0
10600 0.0
10700 0.0
10800 0.0
10900 0.0
11000 0.0
11100 0.0
11200 0.0
11300 0.0
11400 0.0
11500 0.0
11600 0.0
11700 0.0
11800 0.0
11900 0.0
12000 0.0
12100 0.0
12200 0.0
12300 0.0
12400 0.0
12500 0.0
12600 0.0
12700 0.0
12800 0.0
12900 0.0
13000 0.0
13100 0.0
13200 0.0
13300 0.0
13400 0.0
13500 0.0
13600 0.0
13700 0.0
13800 0.0
13900 0.0
14000 0.0
14100 0.0
14200 0.0
14300 0.0
14400 0.0
14500 0.0
14600 0.0
14700 0.0
14800 0.0
14900 0.0
15000 0.0
