
# Total neutron yield = 0.0  n/decay
	 c12 0.0
	 c13 0.0
# Integral of spectrum = 3.9679738663450873e-07  n/decay
100 0.0
200 0.0
300 0.0
400 0.0
500 0.0
600 0.0
700 0.0
800 0.0
900 0.0
1000 0.0
1100 0.0
1200 0.0
1300 0.0
1400 0.0
1500 0.0
1600 0.0
1700 0.0
1800 0.0
1900 0.0
2000 0.0
2100 0.0
2200 0.0
2300 0.0
2400 8.91975116556879e-15
2500 1.544674514134899e-13
2600 5.088426408147837e-13
2700 9.051040839257102e-13
2800 1.7587908586562962e-12
2900 4.816469151194722e-12
3000 1.7837240073025947e-11
3100 3.938515029503648e-11
3200 5.0974891268612615e-11
3300 5.3834102432963024e-11
3400 6.123747817616832e-11
3500 6.69855181747818e-11
3600 9.019097447127276e-11
3700 1.057116265980973e-10
3800 9.262608720430652e-11
3900 8.507318104640968e-11
4000 8.155762743077506e-11
4100 8.300284634050428e-11
4200 9.547272346311437e-11
4300 1.0328747170610823e-10
4400 1.0279238868317967e-10
4500 1.1290056479756921e-10
4600 1.2160387082858439e-10
4700 1.3192312693822134e-10
4800 1.3289240268978077e-10
4900 1.268549125953112e-10
5000 1.3182278808903958e-10
5100 1.3207424643056953e-10
5200 1.2508650021613133e-10
5300 1.1743055099273086e-10
5400 1.0265123519338694e-10
5500 8.549580453729255e-11
5600 7.685314789842511e-11
5700 7.557982656655231e-11
5800 7.439028384706238e-11
5900 7.457388572785126e-11
6000 7.336447136286857e-11
6100 7.276850103621362e-11
6200 7.165891951094677e-11
6300 7.303081132176735e-11
6400 7.414675838446164e-11
6500 6.92419066436497e-11
6600 7.130542469539918e-11
6700 6.568730521526787e-11
6800 6.576010377850352e-11
6900 6.76632762414273e-11
7000 6.287732013753748e-11
7100 5.902596240281422e-11
7200 5.15227034982103e-11
7300 4.240773841986421e-11
7400 3.841695422755415e-11
7500 3.192242650341698e-11
7600 3.0523732931299857e-11
7700 2.989706709102897e-11
7800 2.7738778396589488e-11
7900 2.0894534101514702e-11
8000 1.4350633682257664e-11
8100 1.2394982159591581e-11
8200 1.0816574114946029e-11
8300 9.78203692925417e-12
8400 8.823546781027112e-12
8500 8.18513765470921e-12
8600 7.798224786006076e-12
8700 6.979637211526127e-12
8800 6.111262491997043e-12
8900 5.451279870784239e-12
9000 4.939419237926653e-12
9100 4.171922427080943e-12
9200 3.335159956430416e-12
9300 2.5667793182635737e-12
9400 1.6215106571246577e-12
9500 5.360145157912606e-13
9600 0.0
9700 0.0
9800 0.0
9900 0.0
10000 0.0
10100 0.0
10200 0.0
10300 0.0
10400 0.0
10500 0.0
10600 0.0
10700 0.0
10800 0.0
10900 0.0
11000 0.0
11100 0.0
11200 0.0
11300 0.0
11400 0.0
11500 0.0
11600 0.0
11700 0.0
11800 0.0
11900 0.0
12000 0.0
12100 0.0
12200 0.0
12300 0.0
12400 0.0
12500 0.0
12600 0.0
12700 0.0
12800 0.0
12900 0.0
13000 0.0
13100 0.0
13200 0.0
13300 0.0
13400 0.0
13500 0.0
13600 0.0
13700 0.0
13800 0.0
13900 0.0
14000 0.0
14100 0.0
14200 0.0
14300 0.0
14400 0.0
14500 0.0
14600 0.0
14700 0.0
14800 0.0
14900 0.0
15000 0.0
