
# Total neutron yield = 0.0  n/decay
	 na23 0.0
# Integral of spectrum = 2.633869110995028e-07  n/decay
100 0.0
200 0.0
300 0.0
400 0.0
500 0.0
600 0.0
700 0.0
800 0.0
900 0.0
1000 0.0
1100 0.0
1200 0.0
1300 0.0
1400 0.0
1500 0.0
1600 0.0
1700 0.0
1800 0.0
1900 0.0
2000 0.0
2100 0.0
2200 0.0
2300 0.0
2400 0.0
2500 0.0
2600 0.0
2700 0.0
2800 0.0
2900 0.0
3000 0.0
3100 0.0
3200 0.0
3300 0.0
3400 0.0
3500 0.0
3600 0.0
3700 0.0
3800 0.0
3900 0.0
4000 0.0
4100 0.0
4200 0.0
4300 0.0
4400 0.0
4500 0.0
4600 0.0
4700 0.0
4800 0.0
4900 0.0
5000 0.0
5100 0.0
5200 0.0
5300 0.0
5400 9.671286148874321e-14
5500 6.244992764975176e-12
5600 1.936813840283424e-11
5700 3.8568734303190434e-11
5800 6.083145758562435e-11
5900 8.914439513638644e-11
6000 1.165576246895137e-10
6100 1.3493452636255542e-10
6200 1.3034628710610647e-10
6300 1.2631243190663983e-10
6400 1.2277366772395184e-10
6500 1.196801709692582e-10
6600 1.169890993923256e-10
6700 1.1466377084659899e-10
6800 1.1267262035095492e-10
6900 1.1098753955074527e-10
7000 1.0958421586689403e-10
7100 1.0844095941364626e-10
7200 1.0753851932105672e-10
7300 1.068598977725028e-10
7400 1.0639008638427848e-10
7500 1.0609643120791663e-10
7600 1.0375003314600941e-10
7700 9.851021197728766e-11
7800 9.027153147046908e-11
7900 8.091797141198803e-11
8000 6.975838757234102e-11
8100 5.532871498162541e-11
8200 4.041680618950817e-11
8300 2.3102520188679074e-11
8400 6.73065413767634e-12
8500 0.0
8600 0.0
8700 0.0
8800 0.0
8900 0.0
9000 0.0
9100 0.0
9200 0.0
9300 0.0
9400 0.0
9500 0.0
9600 0.0
9700 0.0
9800 0.0
9900 0.0
10000 0.0
10100 0.0
10200 0.0
10300 0.0
10400 0.0
10500 0.0
10600 0.0
10700 0.0
10800 0.0
10900 0.0
11000 0.0
11100 0.0
11200 0.0
11300 0.0
11400 0.0
11500 0.0
11600 0.0
11700 0.0
11800 0.0
11900 0.0
12000 0.0
12100 0.0
12200 0.0
12300 0.0
12400 0.0
12500 0.0
12600 0.0
12700 0.0
12800 0.0
12900 0.0
13000 0.0
13100 0.0
13200 0.0
13300 0.0
13400 0.0
13500 0.0
13600 0.0
13700 0.0
13800 0.0
13900 0.0
14000 0.0
14100 0.0
14200 0.0
14300 0.0
14400 0.0
14500 0.0
14600 0.0
14700 0.0
14800 0.0
14900 0.0
15000 0.0
