
# Total neutron yield = 0.0  n/decay
	 na23 0.0
# Integral of spectrum = 5.685952846829245e-07  n/decay
100 0.0
200 0.0
300 0.0
400 0.0
500 0.0
600 0.0
700 0.0
800 0.0
900 0.0
1000 0.0
1100 0.0
1200 0.0
1300 0.0
1400 0.0
1500 0.0
1600 0.0
1700 0.0
1800 0.0
1900 0.0
2000 0.0
2100 0.0
2200 0.0
2300 0.0
2400 0.0
2500 0.0
2600 0.0
2700 0.0
2800 0.0
2900 0.0
3000 0.0
3100 0.0
3200 0.0
3300 0.0
3400 0.0
3500 0.0
3600 0.0
3700 0.0
3800 0.0
3900 0.0
4000 0.0
4100 0.0
4200 0.0
4300 0.0
4400 0.0
4500 0.0
4600 0.0
4700 0.0
4800 0.0
4900 0.0
5000 0.0
5100 0.0
5200 0.0
5300 0.0
5400 0.0
5500 5.481194568275549e-12
5600 2.253175815590925e-11
5700 4.867760407442729e-11
5800 8.353483713201162e-11
5900 1.2101148952864935e-10
6000 1.662694719582318e-10
6100 2.1252954391007565e-10
6200 2.6454745996997654e-10
6300 2.752837794491629e-10
6400 2.745910390008634e-10
6500 2.7317071721849735e-10
6600 2.711297444324444e-10
6700 2.6855482011556596e-10
6800 2.6551729331185835e-10
6900 2.620751601016458e-10
7000 2.582762330445417e-10
7100 2.541595403229148e-10
7200 2.497574038482508e-10
7300 2.450960226939662e-10
7400 2.4019664345539774e-10
7500 2.3496387231110945e-10
7600 2.2637065654608027e-10
7700 2.141783565798583e-10
7800 1.9724485694481993e-10
7900 1.7807126003844734e-10
8000 1.556375457063813e-10
8100 1.3356658793573621e-10
8200 1.1036692824859152e-10
8300 8.386246335855273e-11
8400 5.859990847065292e-11
8500 3.0698654396348954e-11
8600 0.0
8700 0.0
8800 0.0
8900 0.0
9000 0.0
9100 0.0
9200 0.0
9300 0.0
9400 0.0
9500 0.0
9600 0.0
9700 0.0
9800 0.0
9900 0.0
10000 0.0
10100 0.0
10200 0.0
10300 0.0
10400 0.0
10500 0.0
10600 0.0
10700 0.0
10800 0.0
10900 0.0
11000 0.0
11100 0.0
11200 0.0
11300 0.0
11400 0.0
11500 0.0
11600 0.0
11700 0.0
11800 0.0
11900 0.0
12000 0.0
12100 0.0
12200 0.0
12300 0.0
12400 0.0
12500 0.0
12600 0.0
12700 0.0
12800 0.0
12900 0.0
13000 0.0
13100 0.0
13200 0.0
13300 0.0
13400 0.0
13500 0.0
13600 0.0
13700 0.0
13800 0.0
13900 0.0
14000 0.0
14100 0.0
14200 0.0
14300 0.0
14400 0.0
14500 0.0
14600 0.0
14700 0.0
14800 0.0
14900 0.0
15000 0.0
