
# Total neutron yield = 0.0  n/decay
	 na23 0.0
# Integral of spectrum = 1.308889267808612e-05  n/decay
100 0.0
200 0.0
300 0.0
400 0.0
500 0.0
600 0.0
700 0.0
800 0.0
900 0.0
1000 0.0
1100 0.0
1200 0.0
1300 0.0
1400 0.0
1500 0.0
1600 0.0
1700 0.0
1800 0.0
1900 0.0
2000 0.0
2100 0.0
2200 0.0
2300 0.0
2400 0.0
2500 0.0
2600 0.0
2700 0.0
2800 0.0
2900 0.0
3000 0.0
3100 0.0
3200 0.0
3300 0.0
3400 0.0
3500 0.0
3600 0.0
3700 0.0
3800 0.0
3900 0.0
4000 0.0
4100 0.0
4200 0.0
4300 0.0
4400 0.0
4500 0.0
4600 0.0
4700 0.0
4800 0.0
4900 0.0
5000 0.0
5100 0.0
5200 0.0
5300 0.0
5400 0.0
5500 0.0
5600 0.0
5700 9.528803855307794e-12
5800 8.251112442497942e-11
5900 2.3217344899193574e-10
6000 4.5602923451104845e-10
6100 7.299971436563435e-10
6200 1.0836754275670706e-09
6300 1.498684569639211e-09
6400 1.9379815286064996e-09
6500 2.4500752868517375e-09
6600 2.956364833076143e-09
6700 3.455988469291447e-09
6800 3.882362653459964e-09
6900 4.266550271590893e-09
7000 4.599976225954092e-09
7100 4.900484136202028e-09
7200 5.17589371056087e-09
7300 5.317681194265964e-09
7400 5.382592260058117e-09
7500 5.407034014938127e-09
7600 5.391313908844822e-09
7700 5.238748069039094e-09
7800 5.0671883333508706e-09
7900 4.869303905514899e-09
8000 4.668769339156753e-09
8100 4.459346627520495e-09
8200 4.2001019994338724e-09
8300 3.959651602615961e-09
8400 3.7016660495189027e-09
8500 3.408575033336259e-09
8600 3.165300182280452e-09
8700 2.910370376517178e-09
8800 2.6836781743882758e-09
8900 2.50191085538271e-09
9000 2.293386941427444e-09
9100 2.051854423377678e-09
9200 1.819015612048774e-09
9300 1.5903980789358738e-09
9400 1.385568702032394e-09
9500 1.2464236025845513e-09
9600 1.121862911756342e-09
9700 9.989376240012302e-10
9800 8.647126003194404e-10
9900 7.660638096331673e-10
10000 7.167349220551541e-10
10100 6.736619514512776e-10
10200 6.31862239635264e-10
10300 5.863197786985831e-10
10400 5.464642390690923e-10
10500 5.072354394685395e-10
10600 4.6365507309376984e-10
10700 4.255631242477191e-10
10800 3.834802570603842e-10
10900 3.466481702617607e-10
11000 3.102359340761867e-10
11100 2.696793196696965e-10
11200 2.3390242580619766e-10
11300 1.9404091409778788e-10
11400 1.5851985185606352e-10
11500 1.2280949563126683e-10
11600 8.261534135628269e-11
11700 4.576520280691028e-11
11800 0.0
11900 0.0
12000 0.0
12100 0.0
12200 0.0
12300 0.0
12400 0.0
12500 0.0
12600 0.0
12700 0.0
12800 0.0
12900 0.0
13000 0.0
13100 0.0
13200 0.0
13300 0.0
13400 0.0
13500 0.0
13600 0.0
13700 0.0
13800 0.0
13900 0.0
14000 0.0
14100 0.0
14200 0.0
14300 0.0
14400 0.0
14500 0.0
14600 0.0
14700 0.0
14800 0.0
14900 0.0
15000 0.0
