
# Total neutron yield = 0.0  n/decay
	 na23 0.0
# Integral of spectrum = 2.6815428584058333e-06  n/decay
100 0.0
200 0.0
300 0.0
400 0.0
500 0.0
600 0.0
700 0.0
800 0.0
900 0.0
1000 0.0
1100 0.0
1200 0.0
1300 0.0
1400 0.0
1500 0.0
1600 0.0
1700 0.0
1800 0.0
1900 0.0
2000 0.0
2100 0.0
2200 0.0
2300 0.0
2400 0.0
2500 0.0
2600 0.0
2700 0.0
2800 0.0
2900 0.0
3000 0.0
3100 0.0
3200 0.0
3300 0.0
3400 0.0
3500 0.0
3600 0.0
3700 0.0
3800 0.0
3900 0.0
4000 0.0
4100 0.0
4200 0.0
4300 0.0
4400 0.0
4500 0.0
4600 0.0
4700 0.0
4800 0.0
4900 0.0
5000 0.0
5100 0.0
5200 0.0
5300 0.0
5400 0.0
5500 0.0
5600 0.0
5700 1.5658017433727013e-13
5800 7.432850836563674e-12
5900 2.6778209360454592e-11
6000 5.951784194410295e-11
6100 1.0553170635675214e-10
6200 1.7140234599383574e-10
6300 2.5261944105512387e-10
6400 3.409437692015757e-10
6500 4.453194658993189e-10
6600 5.53120981961932e-10
6700 6.724053299956593e-10
6800 7.937889166298699e-10
6900 8.932408630109013e-10
7000 9.907676730149605e-10
7100 1.0557317345753354e-09
7200 1.1158460452762964e-09
7300 1.1617851632287528e-09
7400 1.188486883849036e-09
7500 1.1920045082234148e-09
7600 1.177553546949161e-09
7700 1.159698747064996e-09
7800 1.1247744125296586e-09
7900 1.070704066203287e-09
8000 1.0168495307660574e-09
8100 9.60777958424588e-10
8200 9.002165655988986e-10
8300 8.416080268796662e-10
8400 7.827342586287219e-10
8500 7.178518115265479e-10
8600 6.585105876510645e-10
8700 5.93418821892665e-10
8800 5.404219291084645e-10
8900 4.917014064709215e-10
9000 4.384496613179487e-10
9100 4.017078150058492e-10
9200 3.6130967760804083e-10
9300 3.143935283994008e-10
9400 2.73457716728271e-10
9500 2.338211500400359e-10
9600 2.002022930662697e-10
9700 1.78447362379703e-10
9800 1.5545804260852771e-10
9900 1.3513320690359815e-10
10000 1.1574624006580691e-10
10100 1.0017054368690452e-10
10200 9.359512295514753e-11
10300 8.66636280631306e-11
10400 8.070343037578235e-11
10500 7.500050715689118e-11
10600 6.890355455389227e-11
10700 6.365395596926562e-11
10800 5.858586712771391e-11
10900 5.306668126933088e-11
11000 4.8246788126755976e-11
11100 4.295007646229645e-11
11200 3.828310347457001e-11
11300 3.365200669943259e-11
11400 2.8531470893586617e-11
11500 2.3947512351410587e-11
11600 1.8873523093087885e-11
11700 1.4290639584395862e-11
11800 9.71756940509416e-12
11900 4.763928403281034e-12
12000 0.0
12100 0.0
12200 0.0
12300 0.0
12400 0.0
12500 0.0
12600 0.0
12700 0.0
12800 0.0
12900 0.0
13000 0.0
13100 0.0
13200 0.0
13300 0.0
13400 0.0
13500 0.0
13600 0.0
13700 0.0
13800 0.0
13900 0.0
14000 0.0
14100 0.0
14200 0.0
14300 0.0
14400 0.0
14500 0.0
14600 0.0
14700 0.0
14800 0.0
14900 0.0
15000 0.0
