
# Total neutron yield = 0.0  n/decay
	 f19 0.0
# Integral of spectrum = 1.2830360965163713e-05  n/decay
100 0.0
200 0.0
300 0.0
400 0.0
500 0.0
600 0.0
700 0.0
800 0.0
900 0.0
1000 0.0
1100 0.0
1200 0.0
1300 0.0
1400 0.0
1500 0.0
1600 0.0
1700 0.0
1800 0.0
1900 0.0
2000 0.0
2100 0.0
2200 0.0
2300 0.0
2400 0.0
2500 0.0
2600 0.0
2700 0.0
2800 0.0
2900 0.0
3000 0.0
3100 0.0
3200 0.0
3300 0.0
3400 0.0
3500 0.0
3600 0.0
3700 0.0
3800 0.0
3900 0.0
4000 0.0
4100 0.0
4200 0.0
4300 0.0
4400 0.0
4500 0.0
4600 0.0
4700 3.287229433690105e-13
4800 3.9948155943489635e-11
4900 1.4282498456356757e-10
5000 3.08719047324864e-10
5100 5.429729375848032e-10
5200 8.217469782401314e-10
5300 1.1838558160462362e-09
5400 1.597079450289185e-09
5500 2.0550822437638525e-09
5600 2.5572395634778323e-09
5700 3.0290376234724503e-09
5800 3.4844326110873405e-09
5900 3.834342536009378e-09
6000 4.181805053723396e-09
6100 4.47866954660955e-09
6200 4.786457753239417e-09
6300 4.928730301276876e-09
6400 4.99944509672447e-09
6500 5.083346497675745e-09
6600 5.052339864134193e-09
6700 4.9463140191895125e-09
6800 4.848094964203313e-09
6900 4.7262054417335885e-09
7000 4.61146874650034e-09
7100 4.4556443679335076e-09
7200 4.320984147432903e-09
7300 4.1744007135216355e-09
7400 3.975283031736331e-09
7500 3.794842159489004e-09
7600 3.5731035711624563e-09
7700 3.2843302058051834e-09
7800 2.974191227077757e-09
7900 2.7346667627869006e-09
8000 2.5003352465476006e-09
8100 2.2489840918063867e-09
8200 2.030096495820177e-09
8300 1.7916498725136585e-09
8400 1.5800360259971725e-09
8500 1.4097748100943035e-09
8600 1.2816638032316895e-09
8700 1.1390599483088679e-09
8800 1.012224908971794e-09
8900 8.84573325685453e-10
9000 8.099133307588712e-10
9100 7.597919476454699e-10
9200 7.03863738643384e-10
9300 6.566612246130646e-10
9400 6.03411928874633e-10
9500 5.580954514643587e-10
9600 5.060683367069498e-10
9700 4.6118764030824645e-10
9800 4.091445053662119e-10
9900 3.634598074009065e-10
10000 3.10026014415968e-10
10100 2.62009598314145e-10
10200 2.1204942580818837e-10
10300 1.5292742749457902e-10
10400 9.726570591038711e-11
10500 3.1400896232080975e-11
10600 0.0
10700 0.0
10800 0.0
10900 0.0
11000 0.0
11100 0.0
11200 0.0
11300 0.0
11400 0.0
11500 0.0
11600 0.0
11700 0.0
11800 0.0
11900 0.0
12000 0.0
12100 0.0
12200 0.0
12300 0.0
12400 0.0
12500 0.0
12600 0.0
12700 0.0
12800 0.0
12900 0.0
13000 0.0
13100 0.0
13200 0.0
13300 0.0
13400 0.0
13500 0.0
13600 0.0
13700 0.0
13800 0.0
13900 0.0
14000 0.0
14100 0.0
14200 0.0
14300 0.0
14400 0.0
14500 0.0
14600 0.0
14700 0.0
14800 0.0
14900 0.0
15000 0.0
