
# Total neutron yield = 0.0  n/decay
	 be9 0.0
# Integral of spectrum = 0.00032708724107164246  n/decay
100 0.0
200 0.0
300 0.0
400 0.0
500 0.0
600 0.0
700 0.0
800 0.0
900 0.0
1000 0.0
1100 0.0
1200 0.0
1300 0.0
1400 0.0
1500 0.0
1600 0.0
1700 1.5233090354280816e-09
1800 1.5595364330267254e-08
1900 2.1712089943671603e-08
2000 2.479915218964952e-08
2100 2.8872727186176322e-08
2200 3.20471948740526e-08
2300 3.4891523232913867e-08
2400 3.810780884039872e-08
2500 4.1691212346127845e-08
2600 4.6090272176226116e-08
2700 5.5131024227623416e-08
2800 6.108793926206722e-08
2900 7.186031338703977e-08
3000 8.38603756325846e-08
3100 9.468332000718882e-08
3200 1.0340259502606886e-07
3300 1.0662785472542263e-07
3400 1.0795232554540449e-07
3500 1.0683303301164092e-07
3600 1.0507860290787687e-07
3700 1.0263272292870458e-07
3800 1.0029035797613381e-07
3900 9.785096984453289e-08
4000 9.574233582685495e-08
4100 9.38578216822019e-08
4200 9.224097689869223e-08
4300 9.054227325567275e-08
4400 8.886197576104921e-08
4500 8.708096291096249e-08
4600 8.573440009104621e-08
4700 8.375880960525393e-08
4800 8.179526954661749e-08
4900 8.018587515517612e-08
5000 7.71765952111619e-08
5100 7.466728794729924e-08
5200 7.256407173192542e-08
5300 6.976975029647012e-08
5400 6.650530264196047e-08
5500 6.286433049657739e-08
5600 5.955364802803942e-08
5700 5.604005407645208e-08
5800 5.208574558848953e-08
5900 4.721002469044776e-08
6000 4.179745885819969e-08
6100 3.6603775980284894e-08
6200 3.122846954298744e-08
6300 2.6346881029267463e-08
6400 2.2595175358806344e-08
6500 1.870981578507725e-08
6600 1.4969843941384527e-08
6700 1.2031553562182492e-08
6800 9.70289233476534e-09
6900 7.753583165441005e-09
7000 6.281883673608931e-09
7100 5.136688489742772e-09
7200 4.535469586378654e-09
7300 3.994655581007513e-09
7400 3.4854524223122004e-09
7500 3.0443380995444117e-09
7600 2.7606371431826702e-09
7700 2.5835447159557745e-09
7800 2.3956413983750507e-09
7900 2.2035312959356635e-09
8000 2.0123732248026454e-09
8100 1.8173438540953415e-09
8200 1.5929690101942409e-09
8300 1.3433313513859886e-09
8400 1.105756421253228e-09
8500 9.015846511668403e-10
8600 7.366269505288148e-10
8700 6.094390786726256e-10
8800 5.013903687920323e-10
8900 4.080559351634593e-10
9000 3.270458244848196e-10
9100 2.511705916328497e-10
9200 1.6871094653259616e-10
9300 7.572046372903952e-11
9400 0.0
9500 0.0
9600 0.0
9700 0.0
9800 0.0
9900 0.0
10000 0.0
10100 0.0
10200 0.0
10300 0.0
10400 0.0
10500 0.0
10600 0.0
10700 0.0
10800 0.0
10900 0.0
11000 0.0
11100 0.0
11200 0.0
11300 0.0
11400 0.0
11500 0.0
11600 0.0
11700 0.0
11800 0.0
11900 0.0
12000 0.0
12100 0.0
12200 0.0
12300 0.0
12400 0.0
12500 0.0
12600 0.0
12700 0.0
12800 0.0
12900 0.0
13000 0.0
13100 0.0
13200 0.0
13300 0.0
13400 0.0
13500 0.0
13600 0.0
13700 0.0
13800 0.0
13900 0.0
14000 0.0
14100 0.0
14200 0.0
14300 0.0
14400 0.0
14500 0.0
14600 0.0
14700 0.0
14800 0.0
14900 0.0
15000 0.0
