
# Total neutron yield = 0.0  n/decay
	 o16 0.0
	 o17 0.0
	 o18 0.0
# Integral of spectrum = 2.656977863740341e-08  n/decay
100 0.0
200 0.0
300 0.0
400 0.0
500 0.0
600 0.0
700 0.0
800 0.0
900 0.0
1000 0.0
1100 0.0
1200 0.0
1300 0.0
1400 0.0
1500 0.0
1600 0.0
1700 0.0
1800 0.0
1900 0.0
2000 0.0
2100 0.0
2200 0.0
2300 0.0
2400 0.0
2500 0.0
2600 0.0
2700 0.0
2800 0.0
2900 0.0
3000 0.0
3100 0.0
3200 0.0
3300 0.0
3400 0.0
3500 0.0
3600 0.0
3700 0.0
3800 0.0
3900 0.0
4000 0.0
4100 8.64572581842864e-15
4200 6.4314229696534e-14
4300 1.6527828749484057e-13
4400 3.4254987369194595e-13
4500 6.858301457354294e-13
4600 1.3717351044168355e-12
4700 2.1143305106614455e-12
4800 3.4862972920336132e-12
4900 4.486509986902212e-12
5000 5.9702466486998256e-12
5100 8.024292598756936e-12
5200 9.717377650305918e-12
5300 1.1503385888632765e-11
5400 1.2390869640159783e-11
5500 1.2949420330431342e-11
5600 1.3414548726744749e-11
5700 1.3671381681020227e-11
5800 1.3762711615069923e-11
5900 1.3674922392289558e-11
6000 1.3468626142474307e-11
6100 1.3199817885017195e-11
6200 1.2644939698558122e-11
6300 1.2053069447697377e-11
6400 1.1329735695086418e-11
6500 1.041902360996788e-11
6600 9.740549962241203e-12
6700 8.910147298736213e-12
6800 7.945401111210307e-12
6900 6.8730271769927345e-12
7000 5.649038385563393e-12
7100 4.767820066588694e-12
7200 3.640888331291472e-12
7300 2.8928857183648198e-12
7400 2.472420508605192e-12
7500 2.0020337083037275e-12
7600 1.744274184594843e-12
7700 1.394471644158632e-12
7800 1.149120686642086e-12
7900 9.160656672572398e-13
8000 7.38548026818088e-13
8100 6.233717818353118e-13
8200 5.312492846497587e-13
8300 4.458379915831781e-13
8400 3.707419578925386e-13
8500 3.0019146676659996e-13
8600 2.614092448539185e-13
8700 2.273915270496264e-13
8800 1.9901879413559807e-13
8900 1.747069874256191e-13
9000 1.5377270401409277e-13
9100 1.3164492406460524e-13
9200 1.1387416000637574e-13
9300 9.719024273777629e-14
9400 8.306108813235099e-14
9500 6.867558585513313e-14
9600 5.6297490968906436e-14
9700 4.33073296530248e-14
9800 3.13269193143263e-14
9900 1.8883084278565274e-14
10000 9.280524084475034e-15
10100 0.0
10200 0.0
10300 0.0
10400 0.0
10500 0.0
10600 0.0
10700 0.0
10800 0.0
10900 0.0
11000 0.0
11100 0.0
11200 0.0
11300 0.0
11400 0.0
11500 0.0
11600 0.0
11700 0.0
11800 0.0
11900 0.0
12000 0.0
12100 0.0
12200 0.0
12300 0.0
12400 0.0
12500 0.0
12600 0.0
12700 0.0
12800 0.0
12900 0.0
13000 0.0
13100 0.0
13200 0.0
13300 0.0
13400 0.0
13500 0.0
13600 0.0
13700 0.0
13800 0.0
13900 0.0
14000 0.0
14100 0.0
14200 0.0
14300 0.0
14400 0.0
14500 0.0
14600 0.0
14700 0.0
14800 0.0
14900 0.0
15000 0.0
