
# Total neutron yield = 0.0  n/decay
	 b10 0.0
	 b11 0.0
# Integral of spectrum = 0.000142264210787468  n/decay
100 0.0
200 0.0
300 0.0
400 0.0
500 0.0
600 0.0
700 8.588552007471553e-13
800 6.904720321496406e-12
900 8.587730119174974e-10
1000 7.950762068581052e-10
1100 1.509419884641399e-09
1200 5.286926758692796e-09
1300 5.2837330693841724e-09
1400 8.605950150657844e-09
1500 9.742467359355603e-09
1600 1.162993985936241e-08
1700 1.3496281185435825e-08
1800 1.6636227588679806e-08
1900 2.201788711533528e-08
2000 2.8380599348733833e-08
2100 3.4202645982298545e-08
2200 4.093649522505063e-08
2300 4.5260423439574195e-08
2400 4.85629432002876e-08
2500 5.3099895514513946e-08
2600 5.53911216260271e-08
2700 5.738448052927048e-08
2800 5.9480811269691655e-08
2900 6.13768154116976e-08
3000 5.985394882698769e-08
3100 5.923845436890715e-08
3200 5.765294978334014e-08
3300 5.5627824554680694e-08
3400 5.3002922467783577e-08
3500 5.050352102517493e-08
3600 4.7492957889158354e-08
3700 4.4925267742093926e-08
3800 4.1800697154963994e-08
3900 3.872954717629808e-08
4000 3.60659818618545e-08
4100 3.2716985059248776e-08
4200 2.9114709447368957e-08
4300 2.712728624431637e-08
4400 2.548132580486873e-08
4500 2.3819899983230027e-08
4600 2.18290387015466e-08
4700 1.975786855234894e-08
4800 1.7257667713348723e-08
4900 1.557376437906596e-08
5000 1.383032355252768e-08
5100 1.241038728886819e-08
5200 1.0712488714145183e-08
5300 9.058539324345124e-09
5400 7.10592268089554e-09
5500 5.7525882505453814e-09
5600 4.989037864463997e-09
5700 4.4005273939478486e-09
5800 3.7087370857661945e-09
5900 2.8057403788997802e-09
6000 2.1065693262468907e-09
6100 1.690645290872453e-09
6200 1.3904985293228333e-09
6300 1.178822948229558e-09
6400 1.011885549607021e-09
6500 8.355360452288642e-10
6600 6.726113753284964e-10
6700 5.400239823518896e-10
6800 4.0169238711433156e-10
6900 2.2780064129301698e-10
7000 7.196407175015606e-11
7100 5.8040134859412914e-11
7200 4.501887967749631e-11
7300 3.548115892784565e-11
7400 2.6770127071963228e-11
7500 2.158006770403226e-11
7600 1.6133537436924173e-11
7700 1.0841133532036215e-11
7800 5.7384178018681434e-12
7900 8.654791798601728e-13
8000 6.921114303998727e-17
8100 5.493128405739095e-17
8200 4.099860111389059e-17
8300 2.75001318950412e-17
8400 1.4522336827257662e-17
8500 0.0
8600 0.0
8700 0.0
8800 0.0
8900 0.0
9000 0.0
9100 0.0
9200 0.0
9300 0.0
9400 0.0
9500 0.0
9600 0.0
9700 0.0
9800 0.0
9900 0.0
10000 0.0
10100 0.0
10200 0.0
10300 0.0
10400 0.0
10500 0.0
10600 0.0
10700 0.0
10800 0.0
10900 0.0
11000 0.0
11100 0.0
11200 0.0
11300 0.0
11400 0.0
11500 0.0
11600 0.0
11700 0.0
11800 0.0
11900 0.0
12000 0.0
12100 0.0
12200 0.0
12300 0.0
12400 0.0
12500 0.0
12600 0.0
12700 0.0
12800 0.0
12900 0.0
13000 0.0
13100 0.0
13200 0.0
13300 0.0
13400 0.0
13500 0.0
13600 0.0
13700 0.0
13800 0.0
13900 0.0
14000 0.0
14100 0.0
14200 0.0
14300 0.0
14400 0.0
14500 0.0
14600 0.0
14700 0.0
14800 0.0
14900 0.0
15000 0.0
