
# Total neutron yield = 0.0  n/decay
	 f19 0.0
# Integral of spectrum = 7.943648581384774e-06  n/decay
100 0.0
200 0.0
300 0.0
400 0.0
500 0.0
600 0.0
700 0.0
800 0.0
900 0.0
1000 0.0
1100 0.0
1200 0.0
1300 0.0
1400 0.0
1500 0.0
1600 0.0
1700 0.0
1800 0.0
1900 0.0
2000 0.0
2100 0.0
2200 0.0
2300 0.0
2400 0.0
2500 0.0
2600 0.0
2700 0.0
2800 0.0
2900 0.0
3000 0.0
3100 0.0
3200 0.0
3300 0.0
3400 0.0
3500 0.0
3600 0.0
3700 0.0
3800 0.0
3900 0.0
4000 0.0
4100 0.0
4200 0.0
4300 0.0
4400 0.0
4500 0.0
4600 0.0
4700 1.6516564474669125e-12
4800 4.609999136318914e-11
4900 1.409888444660262e-10
5000 2.9763551152220167e-10
5100 5.05095083478453e-10
5200 7.57672841635967e-10
5300 9.91073457668479e-10
5400 1.210490876495974e-09
5500 1.4708774215553974e-09
5600 1.7415397715794643e-09
5700 2.0004652757280347e-09
5800 2.219650878646523e-09
5900 2.4626748330265293e-09
6000 2.6837799876151644e-09
6100 2.878069155739127e-09
6200 2.963060849878687e-09
6300 3.04461327470941e-09
6400 3.05586007676058e-09
6500 3.0582035611181656e-09
6600 3.0549188471742767e-09
6700 3.0050001670023016e-09
6800 2.915126359359196e-09
6900 2.820789528046729e-09
7000 2.742426232222998e-09
7100 2.625460900049746e-09
7200 2.503898514088671e-09
7300 2.403325279368769e-09
7400 2.2756721648511525e-09
7500 2.1687145279118096e-09
7600 2.039366178980278e-09
7700 1.9272770017646975e-09
7800 1.813714413731484e-09
7900 1.6698598573598776e-09
8000 1.543458071214945e-09
8100 1.3954195282981637e-09
8200 1.2673909168331128e-09
8300 1.118199614294277e-09
8400 1.00047181280356e-09
8500 8.697157485855716e-10
8600 7.790652618169383e-10
8700 7.051809079297356e-10
8800 6.192483707051338e-10
8900 5.443837557009572e-10
9000 4.6819955589174e-10
9100 3.999700890159904e-10
9200 3.5226342099984926e-10
9300 3.1737181602339854e-10
9400 2.752389537871301e-10
9500 2.3632808133498465e-10
9600 1.9483638077343078e-10
9700 1.853310634307167e-10
9800 1.7395910950200354e-10
9900 1.6500319194641362e-10
10000 1.5412189983044805e-10
10100 1.4549584746573696e-10
10200 1.3696036844879503e-10
10300 1.2643067326543773e-10
10400 1.1803845734150562e-10
10500 1.0772172911071342e-10
10600 9.944018900791112e-11
10700 8.924668840407135e-11
10800 8.09296334359276e-11
10900 7.066118283734571e-11
11000 6.202602511112739e-11
11100 5.1234391744514116e-11
11200 4.157588996998508e-11
11300 2.9265102090387185e-11
11400 1.7248763548940476e-11
11500 0.0
11600 0.0
11700 0.0
11800 0.0
11900 0.0
12000 0.0
12100 0.0
12200 0.0
12300 0.0
12400 0.0
12500 0.0
12600 0.0
12700 0.0
12800 0.0
12900 0.0
13000 0.0
13100 0.0
13200 0.0
13300 0.0
13400 0.0
13500 0.0
13600 0.0
13700 0.0
13800 0.0
13900 0.0
14000 0.0
14100 0.0
14200 0.0
14300 0.0
14400 0.0
14500 0.0
14600 0.0
14700 0.0
14800 0.0
14900 0.0
15000 0.0
