
# Total neutron yield = 0.0  n/decay
	 f19 0.0
# Integral of spectrum = 1.9388231664797115e-05  n/decay
100 0.0
200 0.0
300 0.0
400 0.0
500 0.0
600 0.0
700 0.0
800 0.0
900 0.0
1000 0.0
1100 0.0
1200 0.0
1300 0.0
1400 0.0
1500 0.0
1600 0.0
1700 0.0
1800 0.0
1900 0.0
2000 0.0
2100 0.0
2200 0.0
2300 0.0
2400 0.0
2500 0.0
2600 0.0
2700 0.0
2800 0.0
2900 0.0
3000 0.0
3100 0.0
3200 0.0
3300 0.0
3400 0.0
3500 0.0
3600 0.0
3700 0.0
3800 0.0
3900 0.0
4000 0.0
4100 0.0
4200 0.0
4300 0.0
4400 0.0
4500 0.0
4600 0.0
4700 4.931095181826699e-13
4800 5.992528458066064e-11
4900 2.1424838376288274e-10
5000 4.6310214650666174e-10
5100 8.145008708385525e-10
5200 1.2326569486740431e-09
5300 1.7466818782522665e-09
5400 2.25117524648273e-09
5500 2.813592582932723e-09
5600 3.4329860461671835e-09
5700 4.021583528286785e-09
5800 4.6611185353782e-09
5900 5.30316103938515e-09
6000 5.930914835379012e-09
6100 6.464066571898293e-09
6200 6.942907475550293e-09
6300 7.264948963199426e-09
6400 7.422298815033212e-09
6500 7.527195502144348e-09
6600 7.5861405883316e-09
6700 7.563040425214431e-09
6800 7.4408845330730605e-09
6900 7.2361545478659186e-09
7000 7.0509167439643465e-09
7100 6.77302773815039e-09
7200 6.485687409212124e-09
7300 6.205003700720868e-09
7400 5.8826182708453125e-09
7500 5.5936548831048926e-09
7600 5.265132931911482e-09
7700 4.9706200626268285e-09
7800 4.6387121079999344e-09
7900 4.341239428502073e-09
8000 4.0303369249782044e-09
8100 3.6829478915393044e-09
8200 3.3744980377543174e-09
8300 3.034279648499171e-09
8400 2.726204444323756e-09
8500 2.4128485324705576e-09
8600 2.1385249740641292e-09
8700 1.9054862531180683e-09
8800 1.715492050287254e-09
8900 1.527516406940492e-09
9000 1.3247793831058688e-09
9100 1.1628957593097332e-09
9200 9.87152629991087e-10
9300 8.959814661656442e-10
9400 7.928911814338095e-10
9500 7.00352767770863e-10
9600 5.938924436337584e-10
9700 5.241761297575021e-10
9800 4.92060836142636e-10
9900 4.651761713464244e-10
10000 4.346347990702596e-10
10100 4.090659761897362e-10
10200 3.839888252443726e-10
10300 3.550586824716285e-10
10400 3.306902508864675e-10
10500 3.0249833766348985e-10
10600 2.786703169836586e-10
10700 2.508885913678031e-10
10800 2.2707837983739025e-10
10900 1.9913821390907025e-10
11000 1.748017778225502e-10
11100 1.4618357379582583e-10
11200 1.205439086223795e-10
11300 9.022632618177874e-11
11400 6.211761681670182e-11
11500 2.8846002981498534e-11
11600 0.0
11700 0.0
11800 0.0
11900 0.0
12000 0.0
12100 0.0
12200 0.0
12300 0.0
12400 0.0
12500 0.0
12600 0.0
12700 0.0
12800 0.0
12900 0.0
13000 0.0
13100 0.0
13200 0.0
13300 0.0
13400 0.0
13500 0.0
13600 0.0
13700 0.0
13800 0.0
13900 0.0
14000 0.0
14100 0.0
14200 0.0
14300 0.0
14400 0.0
14500 0.0
14600 0.0
14700 0.0
14800 0.0
14900 0.0
15000 0.0
