
# Total neutron yield = 0.0  n/decay
	 f19 0.0
# Integral of spectrum = 7.309570038184378e-08  n/decay
100 0.0
200 0.0
300 0.0
400 0.0
500 0.0
600 0.0
700 0.0
800 0.0
900 0.0
1000 0.0
1100 0.0
1200 0.0
1300 0.0
1400 0.0
1500 0.0
1600 0.0
1700 0.0
1800 0.0
1900 0.0
2000 0.0
2100 0.0
2200 0.0
2300 0.0
2400 0.0
2500 0.0
2600 0.0
2700 0.0
2800 0.0
2900 0.0
3000 0.0
3100 0.0
3200 0.0
3300 0.0
3400 0.0
3500 0.0
3600 0.0
3700 0.0
3800 0.0
3900 0.0
4000 0.0
4100 0.0
4200 0.0
4300 0.0
4400 6.474416233006467e-13
4500 2.8833668413893805e-12
4600 6.6332854969268606e-12
4700 1.237991440424875e-11
4800 2.058511175460082e-11
4900 3.352923643166443e-11
5000 3.3565237670435105e-11
5100 3.349477906717621e-11
5200 3.3333252350124214e-11
5300 3.3093649225663717e-11
5400 3.278691170701998e-11
5500 3.24224551194964e-11
5600 3.200821304148843e-11
5700 3.155091243317393e-11
5800 3.1056357518456456e-11
5900 3.052944465280093e-11
6000 2.9974349976105296e-11
6100 2.9394636514385206e-11
6200 2.8793342947555188e-11
6300 2.817305599798162e-11
6400 2.7535959950012477e-11
6500 2.6883944744347868e-11
6600 2.6196708895314013e-11
6700 2.517092159621982e-11
6800 2.3769815613596936e-11
6900 2.176791595873444e-11
7000 1.9446087871311168e-11
7100 1.648436939922013e-11
7200 1.3343618683009974e-11
7300 9.145737201943096e-12
7400 4.376969130734427e-12
7500 0.0
7600 0.0
7700 0.0
7800 0.0
7900 0.0
8000 0.0
8100 0.0
8200 0.0
8300 0.0
8400 0.0
8500 0.0
8600 0.0
8700 0.0
8800 0.0
8900 0.0
9000 0.0
9100 0.0
9200 0.0
9300 0.0
9400 0.0
9500 0.0
9600 0.0
9700 0.0
9800 0.0
9900 0.0
10000 0.0
10100 0.0
10200 0.0
10300 0.0
10400 0.0
10500 0.0
10600 0.0
10700 0.0
10800 0.0
10900 0.0
11000 0.0
11100 0.0
11200 0.0
11300 0.0
11400 0.0
11500 0.0
11600 0.0
11700 0.0
11800 0.0
11900 0.0
12000 0.0
12100 0.0
12200 0.0
12300 0.0
12400 0.0
12500 0.0
12600 0.0
12700 0.0
12800 0.0
12900 0.0
13000 0.0
13100 0.0
13200 0.0
13300 0.0
13400 0.0
13500 0.0
13600 0.0
13700 0.0
13800 0.0
13900 0.0
14000 0.0
14100 0.0
14200 0.0
14300 0.0
14400 0.0
14500 0.0
14600 0.0
14700 0.0
14800 0.0
14900 0.0
15000 0.0
