
# Total neutron yield = 0.0  n/decay
	 f19 0.0
# Integral of spectrum = 1.4832695075570022e-05  n/decay
100 0.0
200 0.0
300 0.0
400 0.0
500 0.0
600 0.0
700 0.0
800 0.0
900 0.0
1000 0.0
1100 0.0
1200 0.0
1300 0.0
1400 0.0
1500 0.0
1600 0.0
1700 0.0
1800 0.0
1900 0.0
2000 0.0
2100 0.0
2200 0.0
2300 0.0
2400 0.0
2500 0.0
2600 0.0
2700 0.0
2800 0.0
2900 0.0
3000 0.0
3100 0.0
3200 0.0
3300 0.0
3400 0.0
3500 0.0
3600 0.0
3700 0.0
3800 0.0
3900 0.0
4000 0.0
4100 0.0
4200 0.0
4300 0.0
4400 0.0
4500 0.0
4600 0.0
4700 4.028611395300331e-12
4800 3.595424292652715e-11
4900 1.0494463703337792e-10
5000 2.0678322849719793e-10
5100 3.317636698598439e-10
5200 5.053042033708243e-10
5300 7.129982020240749e-10
5400 9.820276030310466e-10
5500 1.301277746930787e-09
5600 1.6462318531954136e-09
5700 2.0607874161217715e-09
5800 2.5185993507034007e-09
5900 3.0046031158535297e-09
6000 3.402916326195e-09
6100 3.8215518561409455e-09
6200 4.1715521917092725e-09
6300 4.50196592294546e-09
6400 4.809993174404355e-09
6500 5.04507111940766e-09
6600 5.175615259282859e-09
6700 5.307657626151225e-09
6800 5.389128296342617e-09
6900 5.3312651394132785e-09
7000 5.26914168833104e-09
7100 5.1901548008553935e-09
7200 5.076943010833443e-09
7300 4.965839586425104e-09
7400 4.8247768216266026e-09
7500 4.6766648886739264e-09
7600 4.504330364975286e-09
7700 4.328463921388751e-09
7800 4.1269040781211766e-09
7900 3.9343363825266164e-09
8000 3.73033803167017e-09
8100 3.4940737711441663e-09
8200 3.2283765253069453e-09
8300 2.939808093163558e-09
8400 2.7213199048639943e-09
8500 2.484232866969231e-09
8600 2.262709995670717e-09
8700 2.0330322468840506e-09
8800 1.8338032263708662e-09
8900 1.637845724519706e-09
9000 1.505132604645371e-09
9100 1.3619523830224413e-09
9200 1.2309221924065601e-09
9300 1.1009533735915817e-09
9400 1.0027771489357164e-09
9500 9.454260677650035e-10
9600 8.838490876285845e-10
9700 8.277525368429044e-10
9800 7.676106401817789e-10
9900 7.128534519387323e-10
10000 6.537677781146489e-10
10100 6.000253373136748e-10
10200 5.421940552120159e-10
10300 4.899220342810831e-10
10400 4.334566352592116e-10
10500 3.824157300782171e-10
10600 3.2734241332315227e-10
10700 2.781932626755043e-10
10800 2.2542149918728406e-10
10900 1.7835602903525908e-10
11000 1.2762762945261997e-10
11100 8.197894602754795e-11
11200 3.190319552482505e-11
11300 0.0
11400 0.0
11500 0.0
11600 0.0
11700 0.0
11800 0.0
11900 0.0
12000 0.0
12100 0.0
12200 0.0
12300 0.0
12400 0.0
12500 0.0
12600 0.0
12700 0.0
12800 0.0
12900 0.0
13000 0.0
13100 0.0
13200 0.0
13300 0.0
13400 0.0
13500 0.0
13600 0.0
13700 0.0
13800 0.0
13900 0.0
14000 0.0
14100 0.0
14200 0.0
14300 0.0
14400 0.0
14500 0.0
14600 0.0
14700 0.0
14800 0.0
14900 0.0
15000 0.0
