
# Total neutron yield = 0.0  n/decay
	 o16 0.0
	 o17 0.0
	 o18 0.0
# Integral of spectrum = 7.208303868741492e-09  n/decay
100 0.0
200 0.0
300 0.0
400 0.0
500 0.0
600 0.0
700 0.0
800 0.0
900 0.0
1000 0.0
1100 0.0
1200 0.0
1300 0.0
1400 0.0
1500 0.0
1600 0.0
1700 0.0
1800 0.0
1900 0.0
2000 0.0
2100 0.0
2200 0.0
2300 0.0
2400 0.0
2500 0.0
2600 0.0
2700 0.0
2800 0.0
2900 0.0
3000 0.0
3100 0.0
3200 0.0
3300 0.0
3400 0.0
3500 0.0
3600 0.0
3700 0.0
3800 0.0
3900 0.0
4000 0.0
4100 1.8128525618262475e-15
4200 8.248547676462924e-14
4300 8.644662708222883e-13
4400 1.7458568953695001e-12
4500 2.4583672532543476e-12
4600 2.823033917003284e-12
4700 3.166503180184435e-12
4800 3.3423590011929263e-12
4900 3.3419963012251215e-12
5000 3.278357529996729e-12
5100 3.209548173843173e-12
5200 3.1930982300275173e-12
5300 3.1595581072468825e-12
5400 3.1126865471648487e-12
5500 3.0894533503605803e-12
5600 3.1079476550205147e-12
5700 3.1361946124762715e-12
5800 3.188815227014848e-12
5900 3.261399020420352e-12
6000 3.2601414920497498e-12
6100 2.855261488007003e-12
6200 2.4379962538696577e-12
6300 2.2269885041629334e-12
6400 1.818178669065165e-12
6500 1.6586978850822706e-12
6600 1.3547925544969363e-12
6700 1.119543401745798e-12
6800 9.295307176348573e-13
6900 7.653435620939704e-13
7000 6.538716192419436e-13
7100 5.504819500761884e-13
7200 4.893680619855211e-13
7300 4.160483726003632e-13
7400 3.424832800333342e-13
7500 2.673015062173585e-13
7600 2.1570482821153515e-13
7700 1.7184409128891724e-13
7800 1.4911533148886658e-13
7900 1.2283252784703471e-13
8000 9.851166915028354e-14
8100 7.309515792905115e-14
8200 6.317621124922331e-14
8300 5.754377227886101e-14
8400 5.322740849780908e-14
8500 4.851839437570959e-14
8600 4.4760948439281395e-14
8700 4.003222732571399e-14
8800 3.59595188319799e-14
8900 3.208263792553187e-14
9000 2.942235859163395e-14
9100 2.6413313041915456e-14
9200 2.3922578826691226e-14
9300 2.0824989946435437e-14
9400 1.812900204913363e-14
9500 1.4979257197123363e-14
9600 1.2266652855562598e-14
9700 9.142644192358397e-15
9800 6.26588469849472e-15
9900 3.9856608565321004e-15
10000 1.3127000060976773e-15
10100 0.0
10200 0.0
10300 0.0
10400 0.0
10500 0.0
10600 0.0
10700 0.0
10800 0.0
10900 0.0
11000 0.0
11100 0.0
11200 0.0
11300 0.0
11400 0.0
11500 0.0
11600 0.0
11700 0.0
11800 0.0
11900 0.0
12000 0.0
12100 0.0
12200 0.0
12300 0.0
12400 0.0
12500 0.0
12600 0.0
12700 0.0
12800 0.0
12900 0.0
13000 0.0
13100 0.0
13200 0.0
13300 0.0
13400 0.0
13500 0.0
13600 0.0
13700 0.0
13800 0.0
13900 0.0
14000 0.0
14100 0.0
14200 0.0
14300 0.0
14400 0.0
14500 0.0
14600 0.0
14700 0.0
14800 0.0
14900 0.0
15000 0.0
