
# Total neutron yield = 0.0  n/decay
	 o16 0.0
	 o17 0.0
	 o18 0.0
# Integral of spectrum = 3.841254057384698e-08  n/decay
100 0.0
200 0.0
300 0.0
400 0.0
500 0.0
600 0.0
700 0.0
800 0.0
900 0.0
1000 0.0
1100 0.0
1200 0.0
1300 0.0
1400 0.0
1500 0.0
1600 0.0
1700 0.0
1800 0.0
1900 0.0
2000 0.0
2100 0.0
2200 0.0
2300 0.0
2400 0.0
2500 0.0
2600 0.0
2700 0.0
2800 0.0
2900 0.0
3000 0.0
3100 0.0
3200 0.0
3300 0.0
3400 0.0
3500 0.0
3600 0.0
3700 0.0
3800 0.0
3900 0.0
4000 0.0
4100 1.0960117168709704e-14
4200 8.990331155530323e-14
4300 2.5880873122472475e-13
4400 5.505676928894199e-13
4500 1.1046107517181764e-12
4600 2.1240032497428285e-12
4700 3.3449192299463767e-12
4800 5.416249511997494e-12
4900 6.7763382390178574e-12
5000 8.842954943772338e-12
5100 1.15646777698562e-11
5200 1.3711832860253151e-11
5300 1.599851487282231e-11
5400 1.734479383252751e-11
5500 1.8165453552648614e-11
5600 1.889243114358538e-11
5700 1.9305310320703364e-11
5800 1.9455794619310853e-11
5900 1.938909341055126e-11
6000 1.9112472756600352e-11
6100 1.8775980076156905e-11
6200 1.8057235912008792e-11
6300 1.72405709908841e-11
6400 1.620588430356539e-11
6500 1.488957969652538e-11
6600 1.3929030282535177e-11
6700 1.2825139862649575e-11
6800 1.1513451098369066e-11
6900 1.0048276627305397e-11
7000 8.44880218845249e-12
7100 7.276243676527777e-12
7200 5.802681570387165e-12
7300 4.735147166576997e-12
7400 4.003343992882525e-12
7500 3.1847669237079397e-12
7600 2.7680070890621083e-12
7700 2.195740152714883e-12
7800 1.7959974664089223e-12
7900 1.4174366601330125e-12
8000 1.174029933172126e-12
8100 9.84998410918564e-13
8200 8.402575503387361e-13
8300 7.216088645239393e-13
8400 6.149282989399615e-13
8500 4.989161960867601e-13
8600 4.0982126995369495e-13
8700 3.3333943162165516e-13
8800 2.813651973348293e-13
8900 2.407087994066562e-13
9000 2.0431477045292683e-13
9100 1.663173868257683e-13
9200 1.3618705189038102e-13
9300 1.2045786925011578e-13
9400 1.0973850812115548e-13
9500 9.88739383134916e-14
9600 8.954091594343052e-14
9700 7.975575819964744e-14
9800 7.089050672859e-14
9900 6.220634950756447e-14
10000 5.5855386813030044e-14
10100 4.9643120283144845e-14
10200 4.420484296368183e-14
10300 3.8355302386614564e-14
10400 3.3002306909868495e-14
10500 2.7270708080092567e-14
10600 2.2238413564519002e-14
10700 1.6981142062316373e-14
10800 1.2468084778883598e-14
10900 8.125200657386394e-15
11000 4.751203743906232e-15
11100 1.246363950583601e-15
11200 0.0
11300 0.0
11400 0.0
11500 0.0
11600 0.0
11700 0.0
11800 0.0
11900 0.0
12000 0.0
12100 0.0
12200 0.0
12300 0.0
12400 0.0
12500 0.0
12600 0.0
12700 0.0
12800 0.0
12900 0.0
13000 0.0
13100 0.0
13200 0.0
13300 0.0
13400 0.0
13500 0.0
13600 0.0
13700 0.0
13800 0.0
13900 0.0
14000 0.0
14100 0.0
14200 0.0
14300 0.0
14400 0.0
14500 0.0
14600 0.0
14700 0.0
14800 0.0
14900 0.0
15000 0.0
