
# Total neutron yield = 0.0  n/decay
	 f19 0.0
# Integral of spectrum = 1.55240386478778e-05  n/decay
100 0.0
200 0.0
300 0.0
400 0.0
500 0.0
600 0.0
700 0.0
800 0.0
900 0.0
1000 0.0
1100 0.0
1200 0.0
1300 0.0
1400 0.0
1500 0.0
1600 0.0
1700 0.0
1800 0.0
1900 0.0
2000 0.0
2100 0.0
2200 0.0
2300 0.0
2400 0.0
2500 0.0
2600 0.0
2700 0.0
2800 0.0
2900 0.0
3000 0.0
3100 0.0
3200 0.0
3300 0.0
3400 0.0
3500 0.0
3600 0.0
3700 0.0
3800 0.0
3900 0.0
4000 0.0
4100 0.0
4200 0.0
4300 0.0
4400 0.0
4500 0.0
4600 0.0
4700 4.7054384193921946e-12
4800 4.1994736996475334e-11
4900 1.2257796639310415e-10
5000 2.4304663700247197e-10
5100 4.1670997912429906e-10
5200 6.582972886924081e-10
5300 9.270895411911023e-10
5400 1.25378650578426e-09
5500 1.6341849729960935e-09
5600 2.0392305800452206e-09
5700 2.480318631014769e-09
5800 2.936114068918812e-09
5900 3.431710833762172e-09
6000 3.926124638617849e-09
6100 4.444341893935602e-09
6200 4.8679090416405e-09
6300 5.242870176451723e-09
6400 5.582398247497117e-09
6500 5.90553594223709e-09
6600 6.178697361294543e-09
6700 6.4026532390383e-09
6800 6.5146577165174775e-09
6900 6.466491896211474e-09
7000 6.416502315213473e-09
7100 6.351632433021317e-09
7200 6.189947892275718e-09
7300 5.9304456902859646e-09
7400 5.638208064386088e-09
7500 5.34967961896476e-09
7600 5.0279745865155934e-09
7700 4.729685687285875e-09
7800 4.41676186099584e-09
7900 4.115442749303857e-09
8000 3.807312158038443e-09
8100 3.4690540476265783e-09
8200 3.1519468378518116e-09
8300 2.819807622446136e-09
8400 2.5472149749428814e-09
8500 2.274028964205895e-09
8600 2.0247396116694816e-09
8700 1.7789480963246229e-09
8800 1.5583061700129684e-09
8900 1.32284578711064e-09
9000 1.113249718707674e-09
9100 8.894003407130333e-10
9200 6.983564413100974e-10
9300 5.620986945889416e-10
9400 4.2466414942104134e-10
9500 3.4599974240101014e-10
9600 2.60297918170991e-10
9700 1.8282961224851425e-10
9800 9.874646083908609e-11
9900 2.2807505607553772e-11
10000 1.035012675253502e-15
10100 8.504337903578496e-16
10200 6.514519719159905e-16
10300 4.726536971738972e-16
10400 2.78829091053019e-16
10500 1.0412867264856287e-16
10600 0.0
10700 0.0
10800 0.0
10900 0.0
11000 0.0
11100 0.0
11200 0.0
11300 0.0
11400 0.0
11500 0.0
11600 0.0
11700 0.0
11800 0.0
11900 0.0
12000 0.0
12100 0.0
12200 0.0
12300 0.0
12400 0.0
12500 0.0
12600 0.0
12700 0.0
12800 0.0
12900 0.0
13000 0.0
13100 0.0
13200 0.0
13300 0.0
13400 0.0
13500 0.0
13600 0.0
13700 0.0
13800 0.0
13900 0.0
14000 0.0
14100 0.0
14200 0.0
14300 0.0
14400 0.0
14500 0.0
14600 0.0
14700 0.0
14800 0.0
14900 0.0
15000 0.0
